T (K)	P (kPa)	uP (kPa)
63.1521	12.52	
63.8308	14.15	
63.8769	14.3114	
64	14.605	0.068
64.016	14.6728	
64.1776	15.0624	0.00293
64.1777	15.0588	0.00293
64.1778	15.0613	0.00293
64.373	15.627	
64.555	16.1387	0.181
64.9452	17.2255	0.003
64.9495	17.2255	0.003
65	17.407	0.075
65.005	17.4	0.1
65.005	17.41	0.1
65.0373	17.5002	0.00301
65.039	17.5094	0.00301
65.0419	17.5203	0.00301
65.0631	17.6296	
65.3333	18.43	
65.393	18.64	
65.968	20.593	0.189
65.9816	20.6003	
66	20.625	0.09
66.006	20.64	0.12
66.1826	21.301	
66.292	21.6402	0.00316
66.3088	21.6911	0.00316
66.3274	21.7586	0.00316
66.3291	21.7642	0.00316
66.4091	22.0623	0.00317
66.4102	22.0654	0.00317
66.4121	22.0721	0.00317
66.654	22.96	
66.83	23.6781	
66.8354	23.6506	0.00323
66.8501	23.7057	0.00323
66.8576	23.74	0.00323
66.98	24.231	
66.9981	24.3419	
67.1915	25.0566	0.00328
67.1959	25.0658	0.00328
67.1998	25.0947	0.00328
67.2135	25.139	0.00328
67.2137	25.1403	0.00328
67.2137	25.1455	0.00328
67.367	25.8525	0.201
67.78	27.5844	
68	28.484	0.112
68.043	28.7318	
68.364	30.12	
68.3913	30.256	0.00346
68.3915	30.2574	0.00346
68.3939	30.2686	0.00346
68.4	30.4289	
68.4	30.4471	
68.437	30.3411	0.00346
68.4386	30.3426	0.00346
68.4412	30.36	0.00346
68.612	31.313	
68.63	31.4094	0.0725
68.63	31.4641	0.0725
68.799	32.3373	0.217
69.0485	33.5264	
69.34	34.8457	
69.49	35.9717	0.0744
69.5	35.9877	0.0744
69.5017	35.8	0.00365
69.5036	35.8057	0.00365
69.5054	35.8202	0.00365
69.61	36.0104	7.21
69.688	36.7463	
69.93	38.2435	0.0753
69.95	38.3742	0.0753
69.96	38.5702	0.0755
70	38.548	0.143
70.007	38.58	0.21
70.007	38.6	0.21
70.0104	38.6827	
70.093	39.093	
70.2106	39.8305	
70.293	40.0527	
70.356	40.75	0.237
70.637	42.0392	
70.69	42.628	
70.6901	42.5876	0.00389
70.6933	42.6061	0.00389
70.6966	42.6218	0.00389
70.797	43.0671	
70.86	43.9164	
71.1084	45.3085	
71.1895	45.8304	
71.54	48.1902	
71.54	48.2104	
71.6574	48.8137	0.00411
71.658	48.8205	0.00411
71.947	50.9878	0.264
71.97	51.042	
72	51.216	0.188
72.0052	51.352	
72.0941	51.8445	0.00421
72.0952	51.8576	0.00422
72.0968	51.8707	0.00422
72.1366	52.2881	
72.15	52.1114	
72.34	53.8342	0.0816
72.34	53.8582	0.0816
72.528	55.03	
73.1381	59.8644	
73.2702	60.9235	
73.318	61.201	
73.422	62.2255	0.295
73.7021	64.4888	
73.72	64.2307	
73.9597	66.5676	0.00473
73.9709	66.6212	0.00473
73.9797	66.6917	0.00473
74.0977	67.8955	
74.125	68.07	
74.83	74.636	
74.985	76.018	
74.9965	76.1483	
75	76.043	0.252
75.008	76.11	0.41
75.008	76.13	0.41
75.035	76.6257	0.331
75.044	76.6061	
75.069	76.7	
75.098	76.603	
75.272	78.4175	
75.36	79.8068	0.0919
75.38	79.9548	0.092
75.613	82.0357	0.00527
75.6181	82.0715	0.00527
75.6186	82.0999	0.00527
75.6267	82.166	0.00528
75.6344	82.2683	0.00528
76.0221	86.4889	
76.153	87.73	
76.34	90.0273	2.18
76.4687	91.0632	0.00559
76.4697	91.0757	0.00559
76.4704	91.082	0.00559
76.77	94.7442	0.0979
76.794	94.98	
76.8532	95.3395	0.00574
76.8579	95.401	0.00574
76.8593	95.4163	0.00574
76.8594	95.4119	0.00574
76.94	96.5526	2.24
77.008	97.2	0.53
77.04	97.4787	0.0989
77.04	97.5346	0.0991
77.07	97.692	0.0991
77.25	100.241	
77.25	100.352	
77.268	100.3	
77.309	100.7	
77.348	101.325	
77.35	101.335	2.47
77.356	101.33	
77.357	101.35	
77.37	101.3	
77.3732	101.71	
77.428	102	
77.4735	102.916	
77.504	103.2	
77.52	103.696	2.46
77.5495	103.55	0.00603
77.5521	103.579	0.00603
77.5535	103.586	0.00603
77.557	103.67	0.00603
77.5665	103.753	0.00603
77.5678	103.762	0.00603
77.5693	103.774	0.00603
77.582	103.939	0.00603
77.59	104	
77.6398	104.639	0.00606
77.6406	104.656	0.00606
77.6412	104.658	0.00606
77.6607	104.916	0.00607
77.6638	104.974	0.00607
77.6642	104.977	0.00607
77.6644	104.974	0.00607
77.6654	104.957	0.00607
77.6919	105.391	
77.6949	105.618	
77.7092	105.794	
77.7471	106.263	
77.8	106.59	0.103
77.8	106.607	0.103
77.8483	107.52	
77.8785	107.938	
78	109.252	0.342
78.008	109.755	0.409
78.06	109.694	0.104
78.07	109.759	0.104
78.11	110.204	
78.19	111.968	0.105
78.23	112.369	2.64
78.3	112.52	1.22
78.55	116.118	
79.18	125.136	
79.18	125.461	
79.279	125.75	
79.369	127.256	
79.44	128.855	3.2
79.8	133.321	1.63
80.008	136.86	0.74
80.008	136.99	0.74
80.744	148.38	
80.746	148.38	
80.76	148.67	
80.88	151.721	
80.93	150.914	
81	152.506	0.443
81.566	162	
81.575	162.09	
82	171.45	1.81
82.15	173.85	1.83
82.43	177.714	
82.43	177.906	
83	187.79	0.555
83.368	194.86	
83.37	194.9	
83.379	195.07	
83.4	196	
83.66	200.33	
83.82	203.74	
84.21	212.195	
84.21	212.256	
84.508	218.56	0.22
84.664	221.53	
84.68	221.83	
84.692	222.22	
85.008	228.8	1.24
85.008	228.92	1.24
85.008	228.95	1.24
85.008	229.06	1.24
85.11	232.38	
85.684	244.38	
85.7	247.18	2.6
85.95	252.78	2.65
86	251.732	0.714
86	251.736	0.714
86.27	253.991	
86.85	271.042	
87.33	281.177	5.17
87.8989	299.69	
87.9009	299.69	
90	359.5	
90	360.45	0.944
90	360.459	0.944
90.008	360.78	1.95
90.008	360.8	1.95
90.008	361.08	1.95
90.12	367.911	
90.2149	367.06	
90.49	373.079	5.47
90.5	375.006	4.61
90.54	376.017	6.18
90.66	380.881	6.18
90.67	382.63	
90.68	377.415	
90.68	377.415	
90.68	379.259	6.08
90.73	379.563	5.47
90.9	387.945	
91	388.902	7.79
91.9209	423.45	
91.93	422.323	7.5
93	462.086	1.19
93	462.097	1.19
93.7198	490	
94.5496	520.101	9.42
94.7959	532	
94.8129	532.7	
94.8229	533.3	
94.8459	534.3	
94.8509	534.3	
95.008	541.03	2.92
95.008	541.06	2.92
95.008	541.24	2.92
95.008	540	
95.0194	540.8	
95.0694	542.145	
96	583.155	1.45
96	583.156	1.45
96.0429	585.1	
96.0459	585.2	
96.0459	585.2	
96.8719	625.378	0.226
97.0458	630.3	
97.0538	630.7	
97.4328	648.4	
97.6856	663.192	0.234
98	675.647	1.69
98.6584	714.949	
98.9783	723.019	
99.2793	737.05	6.21
99.5401	756.665	0.253
99.958	773.515	
100.009	779.03	4.2
100.009	779.11	4.2
100.009	779.16	4.2
100.009	777.8	
100.018	785	
100.018	778.158	9.51
100.063	781.6	
100.162	787.1	
100.184	788.5	
100.707	813.58	6.89
101	833.567	2.01
101.647	870.483	11.5
102.037	892.946	
102.137	898.246	12.6
102.18	902.4	
102.437	920.031	12.5
103	952.575	2.29
103.29	970.8	
103.316	972.3	
103.324	973.2	
103.346	974.6	
103.357	975.4	
103.497	982.852	13.4
104.113	1027.84	0.307
104.566	1053.07	
105	1083.3	2.59
105.01	1084.3	5.8
105.01	1084.5	5.8
105.01	1084.5	5.8
105.01	1084.6	5.8
105.01	1083.5	
105.864	1144.67	14.6
106.723	1206.6	
106.979	1225.2	
108	1302.82	3.03
108.272	1327.97	16.2
108.518	1344	
109.101	1391.41	
109.24	1406.9	0.383
110	1465.77	3.4
110	1465.81	3.4
110.01	1465.11	17.7
110.01	1466.7	6
110.011	1466.9	7.9
110.011	1467.1	7.9
110.011	1467.1	7.9
110.011	1468	
110.305	1492.3	
110.337	1495.2	
110.749	1535.68	19.8
110.815	1537.2	
110.859	1540.63	
110.911	1537.53	16.5
110.911	1542.36	16.5
111.009	1569	
111.069	1566.89	19.8
111.848	1616.03	
111.848	1616.03	
112	1642.92	3.78
112.497	1682.32	13.8
112.98	1735.2	7.02
113.145	1751.8	
113.162	1755.39	7.85
113.499	1790.41	0.459
113.607	1808.65	
113.705	1806.43	6.89
113.845	1820.9	
113.866	1822.3	
113.926	1836.31	22.1
114	1835.05	4.17
114.166	1852.76	
114.486	1897.31	21.6
114.69	1906.22	
114.99	1936	7.82
115	1937.01	4.41
115.012	1938.7	10.4
115.012	1939.1	10.4
115.012	1939.1	10.4
115.012	1938.9	
115.046	1955.37	21.1
115.157	1954.1	
116	2043.03	4.63
116.185	2074.12	
116.275	2073.42	
117	2153.27	4.87
117	2153.3	8.68
117.303	2192.37	0.54
117.553	2217.1	
117.844	2255.29	28
117.954	2264.57	
118	2267.83	5.11
118.293	2317.3	28
118.943	2388.23	
118.99	2385.7	9.59
119	2386.88	5.36
119.57	2455.59	
120	2510.59	5.63
120.002	2504.62	30.4
120.013	2512.6	13.5
120.013	2513.1	13.5
120.013	2513.2	13.5
120.013	2513.8	13.5
120.085	2522.5	
120.091	2523.5	
120.113	2526	
120.13	2528.2	
120.142	2530.64	
120.756	2608.7	
120.774	2614.49	13.8
120.96	2633.9	10.6
121	2639.14	5.9
121.028	2648.33	0.631
121.263	2675.1	
121.571	2717.79	
122	2772.73	6.17
122.013	2775.4	15
122.013	2775.5	15
122.013	2775.7	15
122.013	2776.4	15
122.019	2778.59	27.6
122.5	2841.52	6.34
122.754	2878.6	
122.787	2883.4	
122.903	2894.86	
123	2911.65	6.49
123	2911.71	6.49
123.01	2913	11.6
123.14	2933.45	
123.5	2983.21	6.64
124	3056.23	6.79
124.013	3058.6	16.5
124.013	3059.3	16.5
124.013	3060.1	16.5
124.088	3073.49	0.716
124.115	3074.9	
124.4	3115.72	6.92
124.5	3132.16	
124.7	3161	7.02
125	3206.86	7.12
125	3206.86	7.12
125.238	3246.15	0.751
125.25	3245.58	7.21
125.25	3245.58	7.21
125.5	3284.75	7.29
125.5	3284.75	7.29
125.657	3310.9	
125.689	3316	
125.7	3316.42	7.37
125.7	3316.42	7.37
125.709	3319.2	
125.85	3340.39	7.42
125.85	3340.39	7.42
125.95	3356.47	7.46
125.95	3356.47	7.46
126.014	3361.2	18.1
126.014	3366.7	18.1
126.014	3367.8	18.1
126.02	3367.77	7.48
126.02	3367.8	7.48
126.08	3377.51	7.5
126.08	3377.55	7.5
126.12	3384.04	7.51
126.12	3384.08	7.52
126.15	3388.97	7.53
126.15	3388.98	7.53
126.153	3390.9	
126.17	3392.25	7.53
126.207	3400.47	
126.207	3400	
126.207	3400.2	
126.207	3397.81	
126.207	3400	5
126.207	3398	
126.207	3397.8	0.7
