T (K)	rhol (kg/m3)	urho (kg/m3)
64	863.723	0.25
64.79	862.2	
64.79	862.2	
65	859.605	0.25
66	855.436	
66	855.454	0.25
67.7	849.9	
68	847.062	0.251
70	838.541	
70	838.544	0.251
72	829.9	0.252
72.261	831.314	
73.12	826.5	
73.15	826.8	
74.85	819	
75	816.681	0.253
77.31	808.2	
77.31	806.043	
77.35	809.101	
77.35	803.384	
77.602	802.418	0.69
77.65	806.6	
78	803.154	0.254
78.06	804.3	
78.06	804.3	
78.15	804.961	
78.158	805.445	
78.845	799.7	0.38
78.882	796.803	0.68
78.988	797.42	
79.328	794.9	
79.933	794.74	0.38
80	793.953	
80.008	794.949	9.47
80.008	792.838	
81	789.275	0.255
81.083	786.446	0.684
81.248	785.93	
81.277	788.52	0.38
81.973	785.34	0.38
82.475	780.117	0.673
83	779.811	0.256
83.15	779.731	
83.548	774.57	
83.854	776.02	0.38
84.218	771.71	
84.512	770.123	0.656
85.498	767.04	
85.878	766.27	0.39
86	765.247	0.258
86	765.248	0.258
86.198	762.22	
86.419	760.733	0.661
87.748	755.92	
87.928	756.16	0.39
88.15	754.606	
88.958	748.44	
89.137	747.319	0.638
89.841	746.07	0.39
90	745.063	
90	745.056	0.26
90	745.057	0.26
90.008	746.443	8.95
90.008	744.2	
90.57	740.132	
90.64	743.3	
90.64	743.3	
91.018	737.327	0.0194
91.018	739.702	0.488
91.019	737.812	0.641
91.128	737.152	0.0194
91.668	734.69	
91.881	735.62	0.39
92.008	735.077	
92.337	730.482	0.629
93	729.228	0.263
93	729.23	0.263
93.158	729.379	
93.17	728.455	
93.847	724.82	0.39
93.938	725.212	
93.989	721.899	0.614
93.998	724.756	
94.248	720.65	
95.0079	719.206	
95.0829	718.906	
95.2994	714.825	
95.396	713.787	0.618
95.792	714.22	0.4
95.888	711.73	
96	712.707	0.265
96	712.708	0.265
96.008	712.119	
97.009	707.913	
97.193	704.046	0.602
97.811	702.57	0.4
98	701.272	
98	701.247	0.268
98.03	701.4	2.8
98.1685	702.135	
98.199	698.36	
99.4381	692.2	
99.4381	692.2	
99.762	690.89	0.4
100.009	688.305	8.46
100.009	688.2	
100.009	688.4	
100.009	689.524	0.424
100.009	690.156	
100.009	690.265	
100.009	689.284	
100.084	689.724	
100.084	689.926	
100.119	689.611	
100.128	686.786	
100.744	683.252	0.583
100.859	682.79	
100.99	683.4	2.7
101	683.267	0.271
101.763	678.76	0.4
103	670.675	0.275
103.01	671.404	
103.11	667.94	
103.366	666.587	0.571
103.696	666.14	0.4
104.01	663.839	
104.705	659.463	
104.751	657.837	0.572
104.8	658	3
104.95	658	3
105	657.649	
105	657.512	0.28
105.01	658.225	
105.01	658.323	
105.085	657.884	
105.29	655.707	
105.63	651.95	
105.797	652.2	0.41
106.01	651.394	
107.689	639.18	0.41
107.99	636.5	2.3
108	636.488	0.285
108.011	636.711	0.362
108.011	636.085	
108.26	633.512	
109.221	625.41	
109.991	619.559	0.0137
110	621.65	
110	621.437	0.293
110	621.437	0.293
110.011	620.878	7.71
110.011	620.7	
110.011	620.8	
110.021	619.381	0.0137
111.151	610.89	
112	605.354	0.302
112.011	605.378	
112.05	604.1	2.6
113.602	587.8	
114	587.982	0.309
114.79	578.2	1.9
114.99	578.1	1.9
115	579.307	
115	578.714	0.319
115.002	577.12	0.0119
115.01	579.103	
115.01	579.293	
115.012	577.049	0.0119
115.085	578.461	
116	568.973	0.328
116.012	569.048	
116.182	565.88	
117	558.689	0.338
117.12	556.3	1.8
117.585	552.873	
118	547.757	0.35
118.003	547.07	
118.9	536.666	
119	536.051	0.365
119.32	532.331	
120	524.944	
120	523.387	0.385
120.007	522.4	
120.007	522.73	
120.01	523.352	
120.013	523.815	
120.02	523.302	
120.085	522.531	
120.213	519.42	
120.43	515.6	1.9
120.83	510.262	
121	509.498	0.413
121.006	508.5	
121.043	509.12	
122	494.87	
122	493.973	0.438
122.006	493	
122.006	493.26	
122.243	487.68	
122.5	485.402	0.475
123	476.118	0.508
123	476.131	0.508
123.005	475.3	
123.273	470.18	
123.5	465.97	0.552
124	454.634	0.604
124.004	454	
124.013	456.056	
124.083	452.4	
124.4	444.409	0.667
124.7	435.802	0.749
125	426.104	0.79
125.003	425.6	
125.003	425.83	
125.114	422.49	
125.25	416.926	0.24
125.25	417.144	0.24
125.25	417.589	0.24
125.25	418.085	0.24
125.5	406.037	0.24
125.5	406.522	0.24
125.5	406.808	0.24
125.5	407.168	0.24
125.502	405.5	
125.502	406.61	
125.534	405.82	
125.7	395.448	0.24
125.7	395.891	0.24
125.7	396.341	0.24
125.7	396.636	0.24
125.7	396.89	0.24
125.752	391.9	
125.752	392.88	
125.752	393.33	
125.824	388.59	
125.85	385.64	0.24
125.85	386.242	0.24
125.85	386.677	0.24
125.85	387.067	0.24
125.85	387.499	0.24
125.85	387.882	0.24
125.85	388.099	0.24
125.85	388.241	0.24
125.85	388.381	0.24
125.901	381.2	
125.901	382.4	
125.901	383.2	
125.95	377.522	0.24
125.95	378.285	0.24
125.95	378.818	0.24
125.95	379.41	0.24
125.95	379.89	0.24
125.95	380.392	0.24
125.95	380.862	0.24
126.001	372	
126.001	373.18	
126.001	373.24	
126.001	374.09	
126.051	366.7	
126.051	367.87	
126.051	368.2	
126.051	369.37	
126.101	359.4	
126.101	360.28	
126.101	362.58	
126.101	361.87	
126.101	363.86	
126.131	353.7	
126.131	356.11	
126.131	356.64	
126.161	348.7	
126.17	346.967	
126.207	310.96	
126.207	311	
126.207	310.956	
126.207	313.1	
126.207	314.031	
126.207	314	0.6
126.207	314	
126.207	313.1	0.5
